样品两端电压(mV),铂温度计两端电压(mV),次级线圈两端电压(mV)
0.000,29.06,6.88
0.001,29.88,6.97
0.000,30.12,7.00
0.000,32.45,7.65
0.001,32.93,8.12
0.005,33.17,8.71
0.010,33.27,9.22
0.016,33.38,9.50
0.021,33.41,9.61
0.034,33.51,9.71
0.045,33.57,9.93
0.060,33.63,10.03
0.078,33.73,10.15
0.098,33.83,10.25
0.114,33.93,10.29
0.123,33.99,10.32
0.133,34.13,10.34
0.140,34.37,10.34
0.145,35.22,10.33
0.150,36.48,10.31
0.168,41.12,
0.185,45.64,